HZ phi chi+1
-4.21003745
-4.14817333333;-4.52943355556;-4.19504711111;-3.9674958
N/A
N/A
N/A
60.000000;180.000000;300.000000;Unknown
-500.0;-480.0;-460.0;-440.0;-420.0;-400.0;-140.0;-120.0;-100.0;-80.0;-60.0;-40.0;220.0;240.0;260.0;280.0;300.0;320.0
-4.291259;-4.144202;-3.902949;-4.196763;-4.232329;-4.121538;-4.291259;-4.144202;-3.902949;-4.196763;-4.232329;-4.121538;-4.291259;-4.144202;-3.902949;-4.196763;-4.232329;-4.121538
-520.0;-500.0;-480.0;-460.0;-440.0;-420.0;-400.0;-300.0;-280.0;-160.0;-140.0;-120.0;-100.0;-80.0;-60.0;-40.0;60.0;80.0;200.0;220.0;240.0;260.0;280.0;300.0;320.0;420.0;440.0;560.0
-4.194537;-4.226347;-4.167606;-4.583547;-4.449156;-4.163673;-4.260922;-5.359557;-5.359557;-4.194537;-4.226347;-4.167606;-4.583547;-4.449156;-4.163673;-4.260922;-5.359557;-5.359557;-4.194537;-4.226347;-4.167606;-4.583547;-4.449156;-4.163673;-4.260922;-5.359557;-5.359557;-4.194537
-540.0;-520.0;-500.0;-480.0;-460.0;-440.0;-420.0;-400.0;-180.0;-160.0;-140.0;-120.0;-100.0;-80.0;-60.0;-40.0;180.0;200.0;220.0;240.0;260.0;280.0;300.0;320.0;540.0;560.0
-4.086692;-4.379313;-4.424576;-4.169782;-4.094932;-4.163642;-4.179098;-4.170697;-4.086692;-4.379313;-4.424576;-4.169782;-4.094932;-4.163642;-4.179098;-4.170697;-4.086692;-4.379313;-4.424576;-4.169782;-4.094932;-4.163642;-4.179098;-4.170697;-4.086692;-4.379313
-520.0;-500.0;-460.0;-440.0;-420.0;-160.0;-140.0;-100.0;-80.0;-60.0;200.0;220.0;260.0;280.0;300.0;560.0
-3.766033;-3.854033;-4.123338;-4.053865;-4.04021;-3.766033;-3.854033;-4.123338;-4.053865;-4.04021;-3.766033;-3.854033;-4.123338;-4.053865;-4.04021;-3.766033
